! Center RA: 12 19 23.21609,  Dec: +05 49 29.70032 (2000.0)
! Established model.
! Flux (Jy) Radius (mas)  Theta (deg)  Major FWHM (mas)  Axial ratio   Phi (deg) T \
! Freq (Hz)     SpecIndex
 0.0524834      0.00000      0.00000 
 0.0268961     0.100000      90.0000 
 0.0206139     0.200000     -90.0000 
 0.0173796     0.300000     -90.0000 
0.00967908     0.316228     -71.5651 
 0.0197940     0.200000      90.0000 
 0.0128874     0.600000     -90.0000 
 0.0134955     0.700000     -90.0000 
0.00331024      1.50333     -93.8141 
0.00576273      1.50000     -90.0000 
0.00326632      1.40000     -90.0000 
0.000913354     0.608276     -80.5377 
0.00275892     0.509902     -78.6901 
0.00650229      1.10000     -90.0000 
0.00128662     0.905538     -96.3402 
0.00265576      1.60000     -90.0000 
0.00164677     0.800000     -90.0000 
0.00224956      1.20000     -90.0000 
0.00588204      1.00000     -90.0000 
0.000328786      1.70294     -93.3665 
0.00198952      1.70000     -90.0000 
0.00221520      1.30000     -90.0000 
0.000405293     0.900000     -90.0000 
0.00499445     0.223607      116.565 
0.00489660      1.00000      90.0000 
0.000589530      1.80278     -93.1798 
0.000709260     0.500000     -90.0000 
0.00252603      2.70185     -92.1211 
0.00449035      2.80179     -92.0454 
0.00269778      1.80000     -90.0000 
0.00177202     0.905538      83.6598 
0.000559522      2.50200     -92.2906 
0.00236937      1.90263     -93.0128 
0.00530751     0.316228      108.435 
0.000510295      1.40357     -94.0856 
0.000533365      2.50000     -90.0000 
0.00138132      2.40208     -92.3859 
0.000992365      2.00250     -92.8624 
0.00109594      2.30217     -92.4896 
0.000995427      1.30000      90.0000 
0.00208229     0.900000      90.0000 
0.00138796      2.40000     -90.0000 
0.000803878      2.90172     -91.9749 
0.00137707      3.40588     -93.3665 
0.000994503      1.40357      85.9144 
0.000590985      3.80132     -91.5074 
0.00189132      1.80000      90.0000 
0.000252280     0.400000     -90.0000 
0.00110240      2.10238     -92.7263 
0.000695372      2.70000     -90.0000 
0.000546496      3.90128     -91.4688 
0.000152809      3.00666     -93.8141 
0.000899033      4.40114     -91.3020 
0.000366898      1.40000      90.0000 
0.000334614      3.10644     -93.6914 
0.00101497      3.60139     -91.5911 
0.000145533      2.20227     -92.6026 
0.000342190      4.00125     -91.4321 
0.00103903      3.30606     -93.4682 
0.000341584      1.20416      94.7636 
0.000316680      3.90512     -92.9357 
0.000117393      4.50444     -92.5448 
0.000668190      4.00500     -92.8624 
0.000786904      4.50111     -91.2730 
0.000445150      3.70135     -91.5482 
0.00132394      1.50333      86.1859 
0.000633308     0.905538     -83.6598 
0.000622182      1.90000      90.0000 
0.000435612     0.223607     -63.4349 
0.000255234      2.60000     -90.0000 
0.000973377      3.20624     -93.5763 
0.000613804      1.21655      99.4623 
0.000826090     0.806226      82.8750 
0.000615129      4.10122     -91.3972 
0.00115105     0.100000     -90.0000 
0.000627067      4.60435     -92.4896 
9.89349e-05      1.11803      100.305 
0.000976565      1.90263      93.0128 
0.000360715      2.30000     -90.0000 
0.000435217      4.20119     -91.3639 
0.000355456      3.21403     -95.3558 
0.000375174      5.80345     -91.9749 
0.000365119      1.90000     -90.0000 
0.000203289     0.412311      104.036 
0.000307008      2.00000      90.0000 
0.00129948      7.10282     -91.6135 
0.000344692     0.500000      90.0000 
0.000151044      5.90339     -91.9415 
0.000410259      2.20000     -90.0000 
0.000284964      1.23693      104.036 
0.000132734     0.608276     -99.4623 
0.000139564      4.70425     -92.4366 
0.000395266      6.10328     -91.8779 
6.94506e-05      2.10000      90.0000 
0.000299783      3.70540     -93.0941 
0.000207047      7.20625     -92.3859 
0.000405617      2.20227      87.3974 
0.000627991      4.10488     -92.7927 
0.000487800      2.10000     -90.0000 
0.000347174      1.80278      93.1798 
0.000320253      4.80937     -93.5763 
0.000735186      3.60555     -93.1798 
0.000338713     0.509902     -101.310 
0.000194026      6.20322     -91.8476 
0.000832655      5.70351     -92.0096 
0.000263991      4.90918     -93.5035 
0.000119396      1.26491      108.435 
0.000340153      6.30317     -91.8183 
5.90659e-05     0.141421      135.000 
0.000211869      4.40000     -90.0000 
0.000336390      5.01597     -94.5739 
0.000524352      1.30000      112.620 
0.000635491      2.30217      87.5104 
0.000379978      6.40312     -91.7899 
0.000189688      1.51327      82.4054 
0.000510336      2.00000     -90.0000 
0.000133832     0.600000      90.0000 
0.000448580      1.41421      81.8699 
5.09995e-05      7.30616     -92.3533 
5.09044e-05     0.728011     -74.0546 
9.49388e-05     0.632456     -108.435 
4.75517e-05      7.31095     -93.1364 
4.75212e-05     0.824621     -75.9638 
0.000281019      5.00899     -93.4336 
9.01774e-05     0.761577     -66.8014 
0.000741259      1.20830      114.444 
0.000628527      7.41080     -93.0941 
0.000337586      6.50308     -91.7624 
0.000566784      5.70789     -93.0128 
4.35027e-05     0.538517     -111.801 
0.000417205      7.00286     -91.6366 
0.000319640     0.894427     -116.565 
0.000261012     0.509902      101.310 
0.000337823      2.40832      85.2364 
0.000384444      3.11448     -95.5275 
0.000615216     0.721110     -56.3099 
0.000114061     0.670820     -116.565 
4.10328e-05      4.30116     -91.3322 
4.00640e-05      5.10882     -93.3665 
0.000175686     0.141421     -45.0000 
0.000240201      1.20416     -85.2364 
0.000103067     0.700000      90.0000 
0.000288057      5.11566     -94.4846 
0.000166259      2.40208     -87.6141 
0.000425230      9.30215     -91.2320 
0.000411518     0.806226     -60.2551 
0.000258425      5.60803     -93.0665 
3.56753e-05     0.806226     -119.745 
0.000150728      1.01980      78.6901 
0.000400580      6.60303     -91.7357 
3.41305e-05      2.70000      90.0000 
3.38096e-05     0.500000     -36.8699 
0.000249728      6.30714     -92.7263 
0.000348069      2.80179      92.0454 
0.000125033      3.70135      88.4518 
0.000475041      1.43178      77.9052 
5.87918e-05      1.10454     -84.8056 
0.000229369      4.11096     -94.1849 
3.10803e-05      3.50143     -91.6366 
5.61585e-05     0.721110     -123.690 
0.000318615     0.608276      99.4623 
0.000623176     0.447214     -26.5651 
5.68594e-05      4.00500      87.1376 
0.000101946      6.70298     -91.7098 
0.000289538      3.60139      88.4089 
0.000284363      5.21536     -94.3987 
0.000487873      9.30484     -91.8476 
0.000305035      4.10488      87.2073 
0.000246414      2.40832     -85.2364 
0.000100547      2.70740     -94.2364 
0.000843686      8.80909     -92.6026 
0.000246633      1.52971      78.6901 
7.36622e-05      9.90454     -91.7357 
5.09375e-05      7.51066     -93.0529 
0.000118119      1.90263      86.9872 
0.000315018      9.51893     -93.6139 
0.000479389      5.10098      91.1233 
0.000482992      1.04403      73.3008 
0.000268438      4.71699      85.1355 
2.51701e-05      9.90202     -91.1573 
0.000202658      10.4120     -92.7525 
0.000339747     0.984886     -113.962 
0.000296156      7.93095     -95.0636 
2.44051e-05      4.60977      86.2686 
0.000408960      2.80000      90.0000 
0.000423936      10.9041     -91.5766 
0.000156806     0.640312     -128.660 
2.36737e-05      11.0018     -91.0416 
0.000107411      6.80661     -92.5261 
0.000149437      4.60435      87.5104 
4.53564e-05      2.71662     -96.3402 
0.000192257      10.3121     -92.7792 
0.000292102      6.31981      85.4622 
0.000313368      2.90172      91.9749 
0.000182480      1.11803     -79.6952 
0.000100705      9.90808     -92.3137 
0.000154844      6.40703     -92.6838 
2.18239e-05      2.80000     -90.0000 
0.000374904      2.63059     -98.7462 
9.31538e-05      3.50143      88.3634 
9.33405e-05      11.0005     -90.5209 
0.000295862      4.20476      87.2737 
0.000182441      4.91630     -94.6669 
0.000117992      5.61427     -94.0856 
0.000227708      3.13209      73.3008 
2.05177e-05      2.80179     -87.9546 
5.45290e-05      1.91050      83.9910 
0.000112030      3.50571     -93.2705 
2.02795e-05      4.21070     -94.0856 
5.21376e-05      6.00083     -90.9548 
0.000263075      10.4077     -92.2026 
7.21726e-05      6.70671     -92.5638 
7.18574e-05      2.00998      84.2894 
3.48230e-05      5.31507     -94.3160 
8.65377e-05      4.81664     -94.7636 
3.16907e-05      2.72947     -98.4270 
1.91743e-05      3.80526     -93.0128 
8.83301e-05      4.21900     -95.4403 
1.88157e-05      2.90000     -90.0000 
0.000156832      2.50799      85.4261 
0.000113932      4.60109      88.7546 
7.24249e-05      9.62549     -94.1704 
3.52929e-05      4.60977      93.7314 
7.82438e-05      2.80713     -85.9144 
9.98899e-05      7.41687     -93.8655 
1.74110e-05      9.91262     -92.8913 
0.000110204      5.32353     -95.3893 
0.000276243      7.93095      84.9364 
0.000276502      11.7835     -96.8235 
0.000110100      5.71402     -94.0142 
0.000161516      12.6063     -91.8183 
8.57563e-05      6.32851      84.5597 
0.000100030      4.61736      94.9697 
0.000114470      10.0125     -92.8624 
1.65133e-05      9.10055     -90.6296 
9.00011e-05      5.10000      90.0000 
0.000100661      3.60555      86.8202 
3.18711e-05      4.40114     -88.6980 
3.15741e-05      2.30868      85.0303 
0.000125219      17.2409     -97.3311 
0.000216047      16.5979     -96.2258 
3.03259e-05      2.10950      84.5597 
2.88424e-05      6.90652     -92.4896 
0.000201324      6.41950      85.5328 
1.56827e-05      7.51665     -93.8141 
0.000347361     0.565685     -135.000 
0.000248392      3.03645      72.7585 
0.000194266      7.20000     -90.0000 
0.000235428      2.41868     -82.8750 
0.000268326      4.32897     -96.6325 
0.000399952      14.0730     -98.9938 
8.95307e-05      4.31045     -86.0091 
0.000320175      2.02237      81.4692 
2.89111e-05      1.90263     -86.9872 
0.000162673      9.90000     -90.0000 
1.47803e-05      7.00643     -92.4540 
9.11205e-05     0.400000      90.0000 
1.45742e-05      2.30868     -85.0303 
4.18756e-05      13.8130     -92.4896 
5.34214e-05      3.40147      88.3153 
3.72892e-05      13.5204     -97.6507 
0.000315931      8.44808     -96.1155 
4.83508e-05      3.70540      86.9059 
0.000115287      1.14018     -74.7449 
0.000188813      4.01123     -85.7108 
1.40796e-05      1.92354      81.0274 
0.000201380      12.8561     -95.3558 
2.44261e-05      6.00333     -91.9092 
8.72712e-05      2.71662     -83.6598 
1.36609e-05      4.82597     -95.9469 
0.000130800      16.0901     -96.0649 
1.34727e-05      2.00250     -87.1376 
0.000155357      15.1559     -94.9206 
0.000113480      13.5340     -98.0702 
0.000327996      4.83735     -97.1250 
1.30002e-05      2.20227     -87.3974 
0.000246598      1.70294     -86.6335 
0.000146270      13.8177     -92.9038 
0.000195994      7.94040     -95.7824 
0.000106993      5.50000     -90.0000 
6.53446e-05      6.31269     -93.6330 
3.59971e-05      5.81378     -93.9452 
0.000170495      14.3283     -93.6013 
6.43982e-05      4.62709      96.2034 
6.40143e-05      6.91158     -93.3178 
1.20038e-05      5.41479     -94.2364 
0.000241658      12.6036     -91.3639 
7.31524e-05      1.80278     -86.8202 
5.93024e-05      10.1178     -93.3997 
0.000218148      17.2285     -97.0013 
4.04851e-05      7.01142     -93.2705 
0.000200774      1.07703     -111.801 
2.22208e-05      11.2446     -95.1022 
0.000246211      11.0000     -90.0000 
0.000128773      2.13776      100.784 
0.000124948      5.00000     -90.0000 
6.81528e-05      3.40588      86.6335 
2.02263e-05      1.21655     -80.5377 
6.56567e-05      5.42310     -95.2901 
9.95682e-05      15.9906     -96.1028 
-0.000222035      8.05047      96.4188 
3.90425e-05      15.2555     -94.8884 
4.55576e-05      12.2037     -91.4086 
2.71329e-05      4.90000     -90.0000 
0.000152839      4.41022     -86.0995 
1.04139e-05      3.61248     -94.7636 
0.000189171      16.6090     -96.5688 
4.17902e-05      10.0180     -93.4336 
0.000284862      11.2539     -95.6093 
-0.000340288      11.7038     -91.4688 
5.64826e-05      7.42428     -94.6355 
7.11869e-05      2.90689     -86.0548 
4.61512e-05      5.82151     -94.9271 
2.83191e-05      6.70075      89.1449 
9.94671e-06      3.80526      86.9872 
0.000103519      12.4036     -97.4115 
8.47915e-05      13.7179     -92.9250 
9.78068e-05      8.03057      84.9994 
5.06395e-05      7.24431      96.3402 
9.53138e-05      4.21070      85.9144 
1.89162e-05      6.22013     -94.6106 
2.65942e-05      6.41249      86.4237 
9.50318e-06      3.71214     -94.6355 
6.95763e-05      9.30000     -90.0000 
2.55025e-05      3.51283     -94.8991 
2.64644e-05      3.81182      85.4860 
9.24121e-06      1.60312     -86.4237 
4.81566e-05      10.1242     -93.9647 
7.27095e-05      7.60066     -90.7538 
2.49931e-05      4.63897      97.4314 
3.72825e-05      7.94040      84.2176 
6.54919e-05      13.2544     -95.1944 
0.000123190      8.51469     -93.3665 
0.000111938      16.9331     -99.5179 
7.61929e-05      14.0577     -98.5912 
0.000137205      15.3470     -94.4846 
7.06335e-05      1.07703     -68.1986 
4.00934e-05      6.22896     -95.5275 
3.29847e-05      2.60768      85.6013 
3.32064e-05      10.5119     -92.7263 
-0.000159045      6.56201      97.8831 
3.07583e-05      1.23693     -75.9638 
0.000162540      6.80000      90.0000 
-2.42359e-05      16.1012     -101.101 
-0.000135935      11.4039     -91.5074 
2.23309e-05      4.70956      86.3478 
8.15553e-06      5.33385     -96.4588 
0.000148840      7.40608      87.6785 
1.51294e-05      3.81182     -94.5140 
-0.000156428      15.3730     -98.6045 
0.000146359      3.71214      85.3645 
6.68978e-05      3.30606      86.5318 
0.000108000      5.43323     -96.3402 
-0.000361539      13.8279     -100.416 
3.49971e-05      5.93043     -95.8067 
5.71709e-05      9.30860     -92.4628 
-0.000114296      16.0823     -100.751 
9.34885e-05      7.10000     -90.0000 
6.36212e-05      6.14003     -96.5463 
9.09373e-05      13.4807     -99.3924 
-9.73033e-05      17.2351     -93.6593 
7.73315e-05      4.60000      90.0000 
7.06786e-05      6.12944      95.6176 
6.44185e-05      3.12570     -97.3524 
5.44723e-05     0.984886     -66.0375 
1.35515e-05      6.23939     -96.4416 
1.32651e-05      2.30868     -94.9697 
6.82631e-06      15.7544     -98.0272 
1.32723e-05      7.01783     -94.0856 
6.79111e-06      10.7168     -93.2095 
6.72745e-05      2.53180     -99.0903 
-4.05976e-05      6.64831      96.9112 
-5.84894e-05      6.64906      77.8451 
1.15648e-05      7.23395      95.5530 
1.79922e-05      4.65296      98.6525 
6.41145e-06      3.62215     -96.3402 
0.000135613      8.61452      80.6470 
3.86052e-05      1.33417      77.0054 
1.77689e-05      15.0562     -94.9533 
4.44665e-05      4.30465      87.3370 
-2.96723e-05      6.54905      97.0165 
8.05346e-05      8.44808      96.1155 
-8.76560e-05      16.6111     -101.107 
0.000103348     0.500000     -143.130 
2.29716e-05      10.7229     -93.7430 
9.68666e-05      15.6847     -98.8017 
8.06586e-05      7.04060      78.5305 
3.19460e-05      1.51327     -82.4054 
1.22037e-05      3.72156     -96.1702 
1.17483e-05      4.82597      84.0531 
5.41031e-05      12.8658     -95.7992 
0.000133893      17.3968     -100.599 
2.22510e-05      2.20907     -95.1944 
-0.000112209      14.7105     -97.0284 
3.18361e-05      9.20869     -92.4896 
2.79541e-05      13.5484     -98.4889 
-0.000131328      8.14985      96.3402 
2.44966e-05      5.90000     -90.0000 
4.30091e-05      3.82099     -96.0090 
-7.45054e-05      16.9756     -95.4083 
2.92104e-05      14.6328     -100.235 
4.00871e-05      13.2458     -94.7636 
-3.24727e-05      7.51332      80.0362 
2.43818e-05      7.02567     -94.8991 
3.01523e-05      1.14018      74.7449 
1.10937e-05      11.1544     -95.6595 
9.97420e-05      16.6208     -96.9112 
-7.50411e-05      16.0639     -100.401 
5.60991e-05      3.02655     -97.5946 
-7.99220e-05      17.5094     -98.8706 
-0.000137909      4.39318      78.1785 
3.48991e-05      7.95110      83.5007 
3.38328e-05      3.41321      84.9575 
5.40045e-06      7.32462     -94.6987 
5.53574e-05      5.00100      91.1458 
5.37362e-05     0.412311     -14.0362 
2.34288e-05      11.7958     -97.3058 
-2.36680e-05      16.8858     -95.7781 
3.67972e-05      8.05047     -96.4188 
1.04145e-05      15.0479     -94.5739 
3.61693e-05      5.54437     -97.2532 
1.00147e-05      10.7299     -94.2758 
8.01086e-05      13.5636     -98.9067 
-8.03835e-05      6.69104      80.5377 
1.40733e-05      4.80416     -87.6141 
3.62596e-05      5.74282      97.0013 
-9.64010e-05      7.43303      79.1436 
4.98028e-06      4.80937      86.4237 
7.92189e-05      14.9335     -93.8396 
-2.60203e-05      6.63702      96.0542 
2.24370e-05      3.31361      84.8056 
4.95822e-06      13.4974     -99.8113 
1.78039e-05      7.33348     -95.4774 
9.64616e-06      7.90569      87.8253 
5.65362e-05      16.7362     -93.7685 
9.47012e-06      3.91152     -94.3987 
9.20114e-06      7.95110     -96.4993 
9.20167e-06      5.40000     -90.0000 
1.73467e-05      2.22036     -97.7652 
-7.30218e-05      11.3040     -91.5208 
3.39920e-05      10.7671     -96.3990 
1.31337e-05      1.84391      102.529 
9.27204e-06      16.9499     -99.8513 
3.45874e-05      5.02494     -95.7106 
-2.66861e-05      7.63217      95.2624 
1.74950e-05      6.04070     -96.6544 
1.30911e-05      13.8232     -93.3178 
4.64930e-05      6.22013      94.6106 
4.59624e-06      7.90253      88.5498 
-5.47122e-05      4.30116      107.592 
4.53635e-06      1.43178     -77.9052 
3.34125e-05      4.31045      86.0091 
8.98981e-06      10.7787     -96.9272 
8.95471e-06      4.70425      87.5634 
1.27341e-05      4.66905      99.8658 
-2.06521e-05      15.3584     -98.2356 
4.56559e-05      7.80064      89.2655 
-5.35397e-05      14.8098     -96.9811 
8.32331e-06      7.43303     -95.4038 
-4.94627e-05      17.4943     -98.5470 
2.06413e-05      7.96304      82.7857 
2.85893e-05      4.70106      88.7811 
2.45595e-05      12.5036     -91.3748 
1.24637e-05      16.9673     -100.184 
2.02421e-05      1.52971     -78.6901 
1.60903e-05      13.2378     -94.3323 
1.61002e-05      8.94539     -95.7743 
-1.59708e-05      7.64199      96.0090 
-2.78627e-05      8.36002      83.1300 
1.59069e-05      6.33877      83.6598 
4.06620e-06      8.54751     -96.0441 
4.06513e-06      3.91152     -85.6013 
4.02637e-06      9.72522     -94.1276 
1.17511e-05      14.0890     -99.3955 
7.83329e-06      5.65685      98.1301 
3.92273e-06      7.34370      96.2540 
7.77937e-06      16.3918     -98.7727 
3.91351e-06      14.7313     -100.166 
3.88938e-06     0.640312     -51.3402 
! Tentative model.
! Flux (Jy) Radius (mas)  Theta (deg)  Major FWHM (mas)  Axial ratio   Phi (deg) T \
! Freq (Hz)     SpecIndex
0.000261960     0.424264     -45.0000 
0.000124565     0.282843     -45.0000 
2.36609e-05      2.60192     -87.7974 
4.42865e-05      2.50200     -92.2906 
6.21766e-05      2.61725     -83.4181 
4.21045e-05      2.22036     -97.7652 
-0.000136868      6.10328     -91.8779 
5.56254e-05     0.223607     -63.4349 
1.98380e-05      2.60000     -90.0000 
0.000118134      2.12132     -98.1301 
0.000148763     0.565685     -45.0000 
-3.55572e-05      6.10082     -90.9392 
3.55606e-05      2.60192     -92.2026 
-0.000202957      8.54751      96.0441 
8.80397e-05      2.71662     -83.6598 
-0.000199118      6.00333     -91.9092 
0.000316944      4.80416     -87.6141 
7.44000e-05      11.7038     -91.4688 
9.84112e-05      13.5484     -98.4889 
8.46592e-05      7.20000     -90.0000 
7.29659e-05      7.01783     -94.0856 
1.59222e-05      6.82642      84.9575 
6.98084e-05      2.60768     -94.3987 
2.90841e-05     0.223607     -26.5651 
4.17104e-05      6.83593      84.1226 
1.43196e-05      5.36004      104.036 
-0.000243931      10.1400     -95.0921 
3.39578e-05      13.4648     -98.9726 
2.66856e-05      6.91809      85.8554 
6.85706e-05      11.7068     -91.9581 
4.61075e-05      5.23927      103.241 
5.87367e-05      2.10950     -95.4403 
0.000117046      7.02567     -94.8991 
2.49269e-05      4.42832     -96.4831 
-0.000284519     0.761577      66.8014 
-9.59456e-05      8.32166      94.1347 
0.000126098      5.21728      102.171 
-4.56546e-05      14.4014     -99.5931 
0.000106468      13.9359     -94.1149 
4.43764e-05     0.300000      0.00000 
4.91250e-05      6.92604      85.0303 
1.13360e-05      2.61725     -96.5819 
6.80541e-05      2.40832      85.2364 
-8.17413e-05      15.2329     -93.7640 
0.000103313      11.0766     -96.7401 
3.10476e-05      2.90689     -86.0548 
0.000156443      17.5935     -100.480 
3.86754e-05      2.70740     -94.2364 
2.89605e-05     0.360555     -123.690 
0.000133165      4.32897     -96.6325 
9.61201e-05     0.640312     -51.3402 
1.87124e-05      7.10000     -90.0000 
-6.82804e-05      14.3851     -99.2004 
-3.55462e-05      12.8316     -94.0220 
5.78043e-05      2.10238     -92.7263 
-0.000161870      3.62215     -96.3402 
-8.35386e-05      5.22398      84.5077 
0.000120848      8.61452      80.6470 
0.000128643      15.8912     -96.1411 
9.29307e-06      13.2019     -100.033 
4.06427e-05      3.00666     -86.1859 
-8.56709e-05      16.5130     -101.174 
-8.79055e-06      16.9853     -95.7442 
9.35255e-05      2.50799      85.4261 
8.62900e-06      13.5340     -98.0702 
8.31613e-05      7.70065     -90.7441 
-2.42719e-05      14.9967     -96.5090 
4.05500e-05     0.400000      0.00000 
5.77476e-05      4.30000      90.0000 
6.45403e-05      13.1848     -99.6052 
0.000101883      9.14440     -95.6482 
2.97616e-05     0.424264     -135.000 
-5.70589e-05      16.8858     -95.7781 
5.77460e-05      2.71662     -96.3402 
7.75333e-06      7.10070      89.1931 
4.89668e-05      10.1000     -90.0000 
7.57671e-06      3.90512      76.6755 
-6.72651e-05      15.0083     -96.8883 
7.22520e-06      13.5204     -97.6507 
-2.00635e-05      12.8390     -94.4672 
1.32995e-05      6.93542      84.2072 
-5.07767e-05      6.10737     -92.8156 
7.07568e-06      3.88330      78.1113 
1.90120e-05      7.10282      88.3865 
3.66087e-05      2.10000     -90.0000 
5.29638e-05      3.78550      77.7995 
4.14584e-05      3.10644     -86.3086 
5.91547e-05      13.5831     -96.3402 
0.000172051      17.4951     -100.539 
1.21393e-05      10.9772     -96.8013 
0.000206180      10.2000     -90.0000 
-0.000135184      6.22896      84.4725 
6.06189e-06     0.500000     -143.130 
1.14372e-05      13.9435     -94.5248 
0.000118572      13.5724     -95.9206 
-1.11071e-05      12.7566     -95.3977 
0.000105740     0.565685     -135.000 
6.44653e-05      10.9659     -96.2825 
1.08040e-05      7.20069      89.2043 
0.000208028      7.65310     -96.7536 
1.05400e-05      6.94622      83.3865 
2.47855e-05      2.00250     -92.8624 
-0.000186643      5.96657      76.4296 
3.90347e-05      16.2496     -97.7810 
-5.31821e-06      4.27200      106.314 
-0.000243680      16.3441     -94.2105 
0.000123749      2.70000      90.0000 
2.35774e-05      14.0431     -94.4926 
-5.17794e-06      5.11566      85.5154 
5.12463e-05      16.3625     -98.0806 
-5.44411e-05      4.24500      105.018 
-2.71971e-05      12.7664     -95.8446 
0.000130894      8.13019      85.0608 
8.31159e-05      12.1334     -94.2538 
-1.93416e-05      15.0207     -97.2670 
5.27808e-05      3.76563      79.2869 
0.000101412      3.21403     -84.6442 
0.000152690      4.82701      103.173 
-3.68247e-05      3.17805      77.2756 
7.17151e-06     0.316228      18.4349 
5.67125e-05      6.92604     -94.9697 
-2.78810e-05      5.80345      91.9749 
-5.51252e-05      5.55788     -98.2759 
4.75424e-06      13.4952     -96.8091 
-4.89486e-05      14.3694     -98.8068 
8.97360e-06      7.30000      90.0000 
5.57686e-05     0.412311      14.0362 
-1.75528e-05      15.1199     -97.2190 
0.000138344      13.0863     -99.6783 
5.31425e-05      2.00000     -90.0000 
-4.69030e-05      11.0018     -91.0416 
8.39035e-06      6.87314      81.6341 
9.93523e-05      5.20000     -90.0000 
-7.21743e-05      6.11310     -93.7517 
-0.000144518      16.4149     -101.241 
-0.000190053      12.7012     -97.2369 
-7.05213e-06      5.80345     -91.9749 
-1.48154e-05      5.10882      86.6335 
-2.37802e-05      15.1327     -97.5946 
4.11594e-06      7.30068      89.2152 
2.23756e-05      2.60768      85.6013 
3.72801e-05      14.0513     -94.8991 
2.43103e-05      13.5794     -99.3236 
2.55572e-05      7.40068      89.2258 
-3.54811e-05      7.55381      96.8428 
-0.000191037      7.25603      97.1250 
6.28814e-05      6.88840      80.8112 
3.25777e-05      3.74833      80.7890 
-9.67664e-05      15.1463     -97.9696 
-7.51086e-05      1.70294      93.3665 
3.36631e-05      2.63059     -98.7462 
-3.49821e-06      8.52115      94.0377 
6.87419e-06      3.23883      98.8807 
1.30807e-05      3.68782      77.4712 
3.43065e-06      15.7509     -100.240 
0.000108429      16.2635     -98.1301 
-7.95908e-05      11.1041     -91.5482 
-8.21230e-05      10.0404     -95.1428 
-9.76102e-06      6.06383      76.6513 
-6.58607e-05      16.3371     -93.8607 
3.39053e-06      1.60000     -90.0000 
0.000110085      1.21655      80.5377 
-1.89212e-05      3.72156     -96.1702 
1.20963e-05     0.984886     -66.0375 
6.73212e-05      1.60312     -86.4237 
6.58542e-05      8.12219      85.7636 
-9.73545e-06      8.51469      93.3665 
-3.40296e-05      10.7355     -99.1114 
0.000106752      3.33766      98.6156 
4.60707e-06      7.40000      90.0000 
0.000156621      10.3000     -90.0000 
-4.55091e-05      4.22019      103.707 
4.61382e-05      2.70185      87.8789 
-7.75776e-05      1.81108      96.3402 
3.19743e-06      5.33667      102.995 
3.64682e-05      7.50067      89.2361 
-3.20401e-05      4.58912      78.6901 
4.70362e-05      3.61386      75.5792 
0.000172491      6.56201      97.8831 
-0.000120342      7.43303      79.1436 
-0.000132920      7.64199      96.0090 
-3.54896e-05      15.1605     -98.3439 
-1.63473e-05      8.50941      92.6943 
-8.43876e-05      6.31269      86.3670 
7.95525e-05      15.7918     -96.1799 
8.06216e-05      17.0038     -100.847 
-6.39900e-05      3.82099     -96.0090 
-7.67237e-05      3.15753      79.0459 
2.10275e-05      7.60066      89.2462 
1.62209e-05      2.72947     -98.4270 
2.43475e-05      14.0602     -95.3051 
-5.26674e-06      16.7765     -95.4727 
9.85678e-05      7.80000      90.0000 
8.45311e-05      10.8665     -96.3402 
2.10214e-05      3.82099      83.9910 
-0.000144587      2.74591      100.491 
-7.89400e-05      4.57056      79.9194 
-6.95283e-05      5.03587     -96.8428 
-4.65068e-05      14.3544     -98.4123 
-1.74331e-05      5.70351     -92.0096 
-3.23194e-05      3.52278     -96.5198 
5.09734e-06      3.73363      82.3039 
4.49638e-05      1.07703     -68.1986 
7.01139e-05      17.3649     -94.9554 
2.61144e-05      8.84590     -95.8395 
-2.12959e-05      16.8760     -95.4403 
-4.59374e-06      11.0000     -90.0000 
-5.01618e-05      4.29535      102.095 
1.12499e-05      6.95845      82.5686 
4.77470e-05      6.91809     -94.1446 
-3.97918e-05      8.50529      92.0214 
4.72931e-05      2.10238     -87.2737 
-1.52351e-05      5.00400      87.7094 
7.21409e-05      3.59026      77.1250 
-0.000107235      17.4797     -98.2228 
-1.42361e-05      6.30000     -90.0000 
2.80083e-05      5.19711      101.094 
-3.09870e-05      6.06712      98.5308 
-9.12547e-05      6.22013      85.3894 
2.72890e-05      6.90507      79.9920 
-9.83586e-05      11.2040     -91.5343 
5.46425e-05      17.3566     -94.6266 
5.90236e-05     0.223607      63.4349 
6.41789e-06      13.6781     -99.2557 
-7.27320e-05      9.20054     -90.6228 
-1.96171e-05      8.42140     -94.0856 
4.14975e-06      17.0000     -98.7974 
2.28967e-05      12.5036     -91.3748 
-1.36486e-05      14.6578     -95.0883 
-1.01954e-05      10.9330     -98.9454 
6.02761e-06      7.03491      84.2894 
3.89590e-05      6.80661     -92.5261 
-6.56456e-05      15.2453     -97.9175 
7.92056e-06      13.9918     -96.5663 
-0.000111857     0.447214      153.435 
4.85309e-05      3.81182      85.4860 
-3.13837e-05      10.9000     -90.0000 
-0.000109135      11.0318     -98.8646 
-3.80817e-06      4.39318      78.1785 
3.24099e-05      5.84209      83.1183 
7.06876e-05      8.74643     -95.9061 
-2.62059e-05      1.11803     -100.305 
6.99974e-06      16.9850     -98.4640 
-4.39675e-05      5.70789     -93.0128 
-7.27205e-05      7.40608     -92.3215 
5.31832e-05      13.9302     -97.8393 
-6.53517e-06      6.12046     -94.6859 
2.55361e-05      6.84471      78.1976 
-6.73658e-05      4.39318      101.821 
2.29576e-05      4.31856     -95.3145 
4.94187e-05      12.6036     -91.3639 
-1.08329e-05      1.11803      116.565 
-5.16581e-06      14.6492     -94.6987 
1.60508e-05      7.04557      83.4802 
4.36675e-05      5.75587      82.0107 
-3.31987e-05      13.5133     -92.5448 
1.56173e-05      7.80064      90.7345 
-1.89689e-05      14.5674     -95.5149 
4.88625e-06      11.1647     -96.1702 
1.75725e-05      5.17880      100.008 
8.78535e-06      7.50000      90.0000 
-5.83769e-05     0.707107     -98.1301 
-1.99765e-05      3.42345     -96.7098 
-3.49548e-05      5.94390      102.633 
5.20507e-05     0.300000      90.0000 
3.24755e-05      11.2641     -96.1155 
1.38998e-05      6.31981      94.5378 
-8.91443e-06      5.90762      92.9108 
3.01094e-06      10.0000     -90.0000 
1.95370e-05      7.00000     -90.0000 
1.40264e-05      17.0696     -98.0826 
-1.88662e-05      1.62788      79.3803 
-1.88650e-05      1.21655     -99.4623 
-1.37730e-05      5.00100      88.8542 
-2.49574e-05      9.94082     -95.1944 
3.33517e-05      7.90253      91.4502 
-1.95128e-05      2.51794      96.8428 
-2.60975e-05      16.2444     -94.2364 
3.98241e-05      10.8780     -96.8637 
2.43432e-05     0.509902      101.310 
-2.02657e-05      6.64831     -96.9112 
-1.60674e-05      8.50235      91.3479 
1.07876e-05      14.6328     -100.235 
-2.11945e-05      7.15681      97.2243 
5.38072e-06      5.30000     -90.0000 
1.19186e-05      14.6973     -99.3982 
5.36274e-06      9.90000     -90.0000 
-1.18951e-05      8.52115     -94.0377 
1.19438e-05      7.95110      96.4993 
-5.45474e-06      4.66905      80.1342 
-1.70978e-05      7.53127      79.2869 
1.57320e-05      5.50818      93.1221 
-2.75086e-06      6.16604      98.3929 
2.63819e-06      4.50999     -86.1859 
-9.19815e-06      15.2319     -97.5449 
1.36402e-06      5.50364      92.0826 
-6.62714e-06      5.90339      91.9415 
-1.42826e-05      1.20416     -94.7636 
-3.96804e-06      14.3402     -98.0171 
9.22014e-06      6.49384      80.2476 
-1.03868e-05      1.52971      78.6901 
9.03451e-06      3.80526      86.9872 
5.15384e-06      3.56931      78.6901 
-2.58253e-06      4.29535      77.9052 
5.13919e-06      13.5624     -95.5004 
-6.40132e-06      4.65296      81.3475 
-3.84190e-06      1.07703      111.801 
2.58815e-06      5.40093      91.0609 
7.64577e-06     0.200000      90.0000 
3.80888e-06      7.40068      90.7742 
2.53107e-06      1.51327     -82.4054 
3.77445e-06      2.80179      92.0454 
6.31275e-06      6.47765      81.1193 
-3.78058e-06      5.80086      90.9878 
2.52353e-06      15.7813     -95.8190 
-1.24845e-06      1.92354      98.9726 
-1.24297e-06      9.10220     -91.2590 
